LabVIEW					
Separator	Tab				
Decimal_Separator	.				
Date	17/02/2021				
					
Location		1/4L	1/2L	3/4L	
Time	Load (Mean)	WG 16 (Mean)	WG 4 (Mean)	WG 2 (Mean)	Comment
sec	kN	mm	V	mm	
0	1.675066	384.688421	6.084423719	391.618595	
1.088109	1.69221	384.685182	6.084314084	391.616925	
2.141263	1.699319	384.685712	6.084364051	391.617226	
3.193847	1.710149	384.690274	6.084472609	391.620198	
4.245195	1.716854	384.687172	6.084404004	391.618838	
5.295458	1.679594	384.687872	6.084417216	391.618874	
6.387046	1.716368	384.683761	6.084355985	391.617058	
7.439557	1.682324	384.687164	6.08433905	391.618066	
8.503709	1.729021	384.686255	6.084411793	391.618747	
9.55386	1.704034	384.68891	6.084424657	391.619225	
10.630663	1.71436	384.689352	6.084447815	391.619484	
11.685214	1.686342	384.686038	6.084390547	391.617564	
12.737209	1.720013	384.687278	6.084414191	391.617826	
13.790779	1.645439	384.685071	6.084330045	391.616571	
14.842809	1.730013	384.686268	6.084376569	391.617475	
15.899178	1.676227	384.687632	6.084402927	391.618971	
16.953464	1.690768	384.688248	6.084457447	391.619004	
18.005864	1.734359	384.683486	6.08440004	391.616216	
19.054364	1.694663	384.688327	6.084392528	391.618546	
20.110891	1.674462	384.68633	6.084404839	391.617874	
21.16163	1.668533	384.688911	6.084353584	391.618711	
22.210703	1.702853	384.684972	6.084305079	391.617313	
23.262717	1.636057	384.689277	6.084377925	391.619462	
24.313094	1.654975	384.688765	6.084377612	391.618693	
25.366201	1.663052	384.688148	6.084472748	391.619852	
26.417308	1.676412	384.689433	6.084388982	391.619129	
27.46802	1.624329	384.689402	6.084323228	391.618792	
28.517318	1.650264	384.687925	6.084408246	391.61906	
29.568467	1.670938	384.689551	6.084455988	391.619777	
30.621395	1.663162	384.689761	6.084417947	391.619317	
31.675612	1.628149	384.68614	6.08435428	391.616995	
32.726565	1.685412	384.687483	6.084353723	391.617873	
33.777022	1.66902	384.686578	6.084356018	391.618111	
34.828295	1.640504	384.686156	6.084382792	391.618469	
35.88042	1.641594	384.685779	6.084310745	391.617383	
36.931665	1.667599	384.686945	6.084372813	391.618812	
37.982299	1.640655	384.68983	6.084355254	391.618763	
39.033672	1.629703	384.686966	6.084337277	391.617007	
40.087184	1.63712	384.688925	6.084408072	391.619385	
41.138037	1.650179	384.685333	6.08432702	391.617444	
42.190141	1.691335	384.684278	6.084337694	391.617028	
43.242229	1.672008	384.688365	6.084459046	391.620252	
44.292023	1.686868	384.686907	6.084337451	391.616751	
45.34223	1.673287	384.685325	6.084391311	391.61724	
46.391743	1.690914	384.685867	6.084372049	391.616845	
47.443962	1.630424	384.686435	6.084364433	391.618293	
48.497246	1.680362	384.684992	6.084370623	391.617046	
49.550336	1.619837	384.686046	6.084309043	391.617635	
50.602997	1.618677	384.688787	6.084384601	391.619614	
51.6552	1.652838	384.690057	6.084460369	391.619825	
52.70474	1.620799	384.684748	6.084313598	391.616104	
53.754353	1.610124	384.688588	6.084413601	391.619116	
54.804729	1.647396	384.687566	6.084385921	391.618417	
55.857141	7.019215	384.598405	6.083691289	391.556469	
56.907756	13.087694	384.457045	6.084535266	391.433168	
57.959536	8.040499	384.482051	6.081984976	391.433099	
59.011812	3.082021	384.577541	6.080425677	391.505316	
60.063267	0.694501	384.643613	6.081311379	391.565254	
61.115989	0.691293	384.658038	6.08241152	391.582128	
62.168282	1.501692	384.658833	6.083110047	391.582751	
63.221149	2.457589	384.656383	6.083990326	391.583176	
64.269801	3.516351	384.64249	6.083842999	391.583308	
65.319481	4.275836	384.622784	6.083878569	391.579985	
66.369942	4.112844	384.618852	6.083714378	391.580158	
67.422238	3.625742	384.614298	6.083464612	391.5779	
68.472282	3.346726	384.614271	6.083412143	391.579534	
69.523477	3.124872	384.615125	6.083246386	391.579767	
70.579103	3.024708	384.615724	6.083124999	391.578607	
71.6299	3.205697	384.612916	6.083320414	391.578801	
72.68282	3.625969	384.616378	6.083673418	391.581249	
73.734717	3.759441	384.61238	6.083682284	391.579245	
74.787596	3.867993	384.615529	6.083918069	391.581025	
75.838545	3.982832	384.615231	6.083920677	391.579719	
76.88996	4.084896	384.615476	6.084010144	391.580407	
77.942456	4.185594	384.613773	6.084018628	391.577999	
78.997594	4.275761	384.617201	6.084205769	391.580643	
80.05075	4.37158	384.6136	6.084183307	391.577928	
81.10077	4.458833	384.616635	6.084251634	391.579898	
82.153475	4.524121	384.612664	6.084219054	391.577354	
83.203817	4.589087	384.618205	6.084311337	391.580046	
84.254838	4.679173	384.613078	6.084303584	391.58005	
85.305966	4.723497	384.611396	6.084381924	391.580204	
86.356927	4.785233	384.608738	6.084340163	391.579316	
87.408174	4.84325	384.609672	6.084345239	391.579793	
88.457755	4.902254	384.606533	6.084148363	391.577611	
89.508408	4.991507	384.606987	6.08427194	391.579142	
90.558399	5.058926	384.606275	6.08410907	391.57756	
91.610145	5.144703	384.60421	6.084148431	391.575404	
92.66195	5.244527	384.600507	6.084044639	391.57381	
93.712015	5.357706	384.598954	6.084109591	391.573069	
94.762078	5.448731	384.596347	6.084106184	391.568953	
95.812604	5.561091	384.591633	6.083879125	391.561125	
96.864965	5.662882	384.594938	6.083919981	391.558444	
97.915327	5.779253	384.590826	6.083949781	391.556794	
98.966094	5.911135	384.584676	6.08378799	391.552194	
100.015196	6.013714	384.582712	6.083632837	391.550689	
101.065399	6.133887	384.582665	6.083788719	391.54998	
102.118047	6.247374	384.575847	6.083606063	391.546998	
103.169243	6.348851	384.574365	6.083542674	391.544356	
104.22282	6.432673	384.576698	6.08359744	391.545042	
105.275399	6.507671	384.573992	6.083511625	391.542466	
106.32715	6.559424	384.570554	6.083424451	391.538231	
107.376539	6.625548	384.570494	6.083428972	391.539069	
108.428935	6.680792	384.570843	6.083335194	391.536998	
109.481391	6.726224	384.568325	6.08335929	391.535233	
110.532113	6.788183	384.566649	6.083238216	391.532278	
111.583072	6.86573	384.568157	6.08347195	391.532696	
112.634442	6.931586	384.562485	6.083461172	391.529121	
113.683514	6.984045	384.563019	6.083501401	391.528088	
114.733868	7.063711	384.564128	6.083557558	391.527399	
115.787388	7.156294	384.564701	6.083556445	391.527433	
116.839392	7.268351	384.560519	6.083473131	391.525858	
117.894331	7.358562	384.555908	6.083451018	391.521645	
118.944096	7.476265	384.555047	6.083449766	391.519915	
119.997298	7.597807	384.5552	6.083607838	391.52161	
121.0481	7.726055	384.547254	6.083496602	391.517991	
122.099008	7.868346	384.542523	6.083557244	391.51744	
123.148915	8.005525	384.543107	6.083686629	391.51692	
124.198139	8.136978	384.539447	6.083613297	391.512431	
125.250664	8.253947	384.5365	6.08389352	391.510886	
126.301845	8.359127	384.53502	6.083858958	391.509542	
127.353269	8.454232	384.531025	6.083791188	391.507457	
128.402716	8.536904	384.52985	6.083815597	391.507462	
129.452383	8.577789	384.528559	6.083735102	391.505007	
130.504471	8.614564	384.529747	6.08390124	391.506097	
131.556926	8.664751	384.52623	6.083853777	391.504066	
132.61063	8.675543	384.526167	6.083828394	391.503081	
133.662029	8.699492	384.526158	6.08385635	391.502549	
134.710345	8.731559	384.524804	6.083832428	391.500674	
135.761718	8.77353	384.521288	6.083767474	391.498855	
136.813515	8.833887	384.525876	6.083866713	391.500756	
137.864281	8.909582	384.519211	6.083903431	391.498029	
138.915563	9.015083	384.520868	6.083974818	391.498576	
139.965743	9.111645	384.521578	6.084064007	391.498703	
141.019427	9.236934	384.517759	6.084200624	391.498011	
142.071561	9.357652	384.517028	6.084277748	391.496909	
143.124861	9.515629	384.516769	6.084437662	391.49512	
144.178053	9.691936	384.51435	6.084644345	391.492794	
145.248591	9.889264	384.509643	6.084666564	391.490415	
146.300948	10.055583	384.50409	6.084589579	391.4853	
147.352402	10.222539	384.501577	6.084810691	391.484196	
148.406258	10.366378	384.499956	6.0847722	391.481351	
149.455606	10.454575	384.493614	6.084711351	391.478261	
150.50625	10.527413	384.497024	6.084732386	391.479837	
151.559505	10.551165	384.493392	6.084733221	391.47803	
152.610157	10.514329	384.49205	6.084711907	391.47614	
153.663894	10.233971	384.495007	6.084573201	391.478808	
154.715066	10.25569	384.495601	6.084645248	391.47934	
155.764722	10.396661	384.489746	6.084616111	391.475802	
156.815726	10.570328	384.491349	6.08482387	391.476606	
157.864823	10.611374	384.49488	6.084936914	391.478141	
158.920067	10.692666	384.487729	6.084791012	391.474607	
159.972149	10.782688	384.487906	6.084820323	391.474688	
161.023642	10.928229	384.489103	6.084903708	391.474996	
162.075568	11.071213	384.487859	6.084953465	391.473784	
163.12628	11.230595	384.48186	6.084851132	391.470002	
164.190897	11.388737	384.484683	6.084976554	391.470454	
165.241435	11.545469	384.479542	6.084918103	391.467805	
166.295802	11.658899	384.476712	6.085025687	391.464671	
167.348024	11.745922	384.473147	6.084926587	391.463095	
168.398406	11.813884	384.471117	6.084949327	391.462253	
169.450817	11.874388	384.467829	6.084982498	391.46084	
170.503513	11.940983	384.471796	6.085026208	391.462105	
171.5532	11.978595	384.469237	6.08512016	391.462044	
172.60436	12.03138	384.469223	6.084940704	391.459552	
173.655599	12.085435	384.463806	6.084832634	391.458207	
174.705058	12.128537	384.465234	6.084929751	391.459686	
175.755758	12.168646	384.465916	6.084922448	391.456747	
176.805612	12.228828	384.460357	6.084976137	391.452107	
177.859191	12.314601	384.462285	6.085080311	391.452024	
178.910286	12.399882	384.462535	6.085004927	391.449173	
179.961671	12.501367	384.459539	6.084841083	391.443718	
181.017124	12.611765	384.456559	6.084934931	391.440818	
182.067647	12.724843	384.453056	6.084876584	391.435741	
183.120096	12.842755	384.453761	6.084931281	391.435455	
184.171766	12.934181	384.451535	6.084839239	391.435538	
185.225762	13.040254	384.451485	6.08483632	391.433938	
186.278924	13.15289	384.448214	6.084576262	391.431193	
187.328179	13.277159	384.448084	6.084635479	391.431816	
188.380391	13.416817	384.444006	6.084695807	391.429493	
189.430533	13.559927	384.439933	6.084787256	391.426828	
190.480173	13.683281	384.440149	6.084961774	391.428093	
191.533638	13.796078	384.440505	6.084921196	391.426272	
192.586061	13.869696	384.433106	6.084745878	391.422227	
193.637186	13.931391	384.430428	6.084703074	391.421941	
194.690093	13.981554	384.432295	6.084725051	391.42275	
195.74024	14.025068	384.429705	6.084543194	391.420048	
196.790154	14.061615	384.430681	6.084576957	391.42185	
197.840106	14.103226	384.432082	6.084635757	391.421133	
198.891405	14.147853	384.429969	6.084497539	391.420654	
199.943663	14.179543	384.426557	6.084506441	391.419177	
200.99666	14.23916	384.426935	6.084465202	391.419433	
202.049227	14.316608	384.426395	6.084368746	391.416872	
203.10069	14.382788	384.425967	6.084475217	391.418599	
204.152848	14.459388	384.42102	6.084355289	391.415742	
205.20527	14.54681	384.423859	6.084256397	391.418225	
206.257312	14.643998	384.415509	6.084144085	391.415665	
207.309858	14.796087	384.415245	6.084169365	391.418077	
208.360754	14.936028	384.412228	6.084204067	391.417905	
209.411557	15.115847	384.410955	6.08412131	391.414373	
210.463637	15.320382	384.40308	6.083917758	391.408435	
211.515091	15.523836	384.401899	6.083986501	391.404501	
212.567066	15.738908	384.395118	6.083878187	391.400892	
213.61746	15.907228	384.394759	6.083864487	391.400393	
214.670192	16.023916	384.388131	6.083635863	391.395904	
215.722047	16.090451	384.386853	6.083718134	391.395435	
216.773408	16.104495	384.386121	6.08376883	391.394533	
217.823343	16.024663	384.381783	6.083659683	391.393642	
218.874223	15.869385	384.386537	6.083552377	391.392969	
219.925241	15.793381	384.384588	6.083526473	391.392753	
220.975726	15.840391	384.386848	6.083651128	391.393965	
222.027164	15.943228	384.386349	6.083670218	391.394138	
223.077979	16.053825	384.38372	6.08374522	391.392869	
224.128124	16.074062	384.385834	6.083788962	391.394303	
225.179654	16.127052	384.382293	6.08371177	391.392529	
226.229785	16.207374	384.383371	6.08367599	391.393706	
227.282318	16.310802	384.380853	6.083623554	391.391829	
228.335947	16.450537	384.38008	6.083571953	391.390594	
229.387098	16.623967	384.37878	6.083716743	391.388101	
230.440498	16.808516	384.373316	6.083656379	391.385628	
231.496057	16.997931	384.373077	6.083862193	391.384909	
232.545774	17.242838	384.366052	6.083693515	391.38002	
233.596827	17.454718	384.363312	6.083602795	391.377013	
234.647101	17.651212	384.359952	6.083514094	391.37272	
235.698379	17.784471	384.363209	6.083621885	391.372138	
236.750413	17.878153	384.357042	6.083530297	391.3696	
237.801584	17.914988	384.354355	6.083332619	391.364112	
238.853477	17.875262	384.353081	6.083378587	391.364475	
239.907565	17.705917	384.347669	6.083340999	391.364512	
240.959111	17.604499	384.35517	6.083393888	391.368677	
242.010632	17.550848	384.354062	6.083323022	391.366907	
243.060995	17.686029	384.349566	6.083291973	391.363597	
244.111647	17.789101	384.349873	6.083308801	391.363699	
245.164931	17.841547	384.353053	6.083457137	391.365431	
246.21795	17.878633	384.352764	6.083483113	391.364532	
247.271552	17.93769	384.352533	6.083497508	391.366385	
248.325785	17.999244	384.353031	6.08353033	391.365112	
249.377699	18.09429	384.350522	6.083594136	391.363136	
250.427723	18.219572	384.345561	6.083532766	391.360911	
251.475265	18.36386	384.344512	6.083404109	391.358719	
252.526583	18.532798	384.343905	6.083544728	391.358222	
253.580023	18.807242	384.338298	6.083597754	391.354329	
254.631777	19.109308	384.333321	6.083557244	391.350221	
255.685237	19.365719	384.326981	6.083583288	391.346568	
256.736361	19.589828	384.327667	6.083700296	391.345129	
257.789495	19.739842	384.323599	6.083645912	391.341485	
258.84069	19.802671	384.320694	6.083818066	391.342016	
259.892505	19.829383	384.32208	6.08384505	391.340461	
260.942123	19.685993	384.317011	6.083759721	391.337165	
261.992139	19.491032	384.317779	6.083571918	391.338293	
263.043068	19.349406	384.318021	6.083431405	391.337367	
264.092693	19.360754	384.320576	6.083551889	391.340129	
265.142235	19.490138	384.321944	6.083634717	391.33885	
266.191565	19.656812	384.322656	6.083771855	391.339058	
267.242176	19.720047	384.31931	6.083756939	391.337338	
268.293009	19.739026	384.320337	6.083799533	391.338185	
269.346169	19.790761	384.319136	6.083834341	391.337893	
270.399161	19.887503	384.319512	6.083782914	391.337558	
271.451089	20.019918	384.317635	6.083798943	391.335333	
272.50282	20.171578	384.31803	6.08385555	391.335211	
273.554291	20.35799	384.31221	6.083774081	391.332276	
274.603531	20.554629	384.309758	6.083822831	391.330932	
275.65476	20.750079	384.308399	6.083734128	391.328399	
276.704735	20.94168	384.306408	6.083786076	391.327206	
277.755377	21.115925	384.300279	6.083777905	391.324609	
278.806432	21.236713	384.29789	6.083736667	391.32207	
279.856952	21.344684	384.295715	6.083850474	391.320758	
280.908326	21.402982	384.295831	6.083923495	391.322482	
281.961681	21.450209	384.293147	6.083804923	391.320197	
283.012396	21.449157	384.29223	6.083836913	391.318576	
284.06458	21.440195	384.288913	6.083838861	391.318083	
285.116135	21.431952	384.286132	6.083763439	391.316671	
286.166283	21.417793	384.286307	6.083710136	391.315168	
287.21681	21.428744	384.284152	6.083642331	391.313428	
288.268132	21.425165	384.290495	6.083807705	391.316643	
289.31972	21.45435	384.290954	6.083789136	391.3166	
290.370692	21.496101	384.290166	6.083847588	391.316558	
291.422256	21.576913	384.289501	6.083811216	391.316753	
292.475084	21.683056	384.28726	6.083729365	391.314034	
293.525298	21.830924	384.284775	6.083799047	391.314211	
294.576745	22.014165	384.28191	6.083715976	391.311649	
295.630385	22.263777	384.279037	6.083709266	391.310118	
296.679102	22.560521	384.272992	6.083521778	391.307131	
297.729447	22.847112	384.271364	6.083364887	391.303777	
298.7822	23.092022	384.266579	6.083252819	391.301328	
299.833483	23.286439	384.268771	6.083343746	391.302606	
300.884922	23.402118	384.265049	6.083270588	391.299489	
301.934129	23.428085	384.265426	6.083420488	391.299648	
302.983339	23.393473	384.267045	6.083302715	391.299457	
304.034738	23.188152	384.268283	6.083212727	391.300441	
305.083335	23.004707	384.267859	6.083061262	391.299152	
306.134658	22.891997	384.261799	6.082952461	391.296967	
307.185473	22.927945	384.263773	6.083052431	391.296997	
308.235527	23.113517	384.267537	6.083144158	391.298406	
309.286466	23.240116	384.26247	6.083160326	391.296	
310.337194	23.305453	384.264806	6.083253585	391.297963	
311.38823	23.347758	384.265245	6.083270657	391.297515	
312.440394	23.431736	384.257303	6.083261616	391.296154	
313.49263	23.536439	384.264259	6.08305789	391.296075	
314.54624	23.68584	384.261741	6.083185745	391.297099	
315.598664	23.851008	384.256542	6.083208416	391.294496	
316.648734	24.019173	384.259756	6.083050274	391.293788	
317.700295	24.21604	384.252143	6.083085742	391.288634	
318.749765	24.383461	384.252543	6.083108168	391.287962	
319.803104	24.550337	384.250537	6.0831605	391.285744	
320.855094	24.656664	384.247758	6.083253585	391.283867	
321.907885	24.768107	384.243532	6.083203757	391.282263	
322.958497	24.845446	384.239686	6.08322142	391.28078	
324.009418	24.910527	384.241562	6.083160465	391.279522	
325.061406	24.962636	384.238534	6.083189987	391.274045	
326.113702	24.99719	384.233374	6.083079448	391.272365	
327.163985	25.032294	384.234878	6.083094608	391.273016	
328.215034	25.057761	384.233442	6.082957677	391.272893	
329.26533	25.075497	384.235774	6.083032471	391.277097	
330.31438	25.11734	384.230566	6.083012164	391.275306	
331.364685	25.175231	384.229509	6.083041061	391.273705	
332.416442	25.222153	384.232189	6.083170618	391.273591	
333.469459	25.291885	384.232156	6.083045753	391.273212	
334.522995	25.378333	384.228637	6.083116063	391.271097	
335.579095	25.482234	384.228184	6.083048885	391.269489	
336.629112	25.588967	384.226297	6.08315598	391.268992	
337.678977	25.73839	384.219936	6.083184806	391.261649	
338.730911	25.887397	384.218574	6.083220621	391.262978	
339.781338	26.051825	384.214116	6.083344965	391.258026	
340.835736	26.253676	384.213501	6.083396635	391.257731	
341.888819	26.425261	384.209396	6.083429389	391.250393	
342.940456	26.535813	384.205539	6.083487944	391.247827	
343.993844	26.653024	384.196465	6.083380952	391.243545	
345.043808	26.750918	384.1956	6.08346875	391.244066	
346.093402	26.817961	384.191402	6.083401954	391.241104	
347.143692	26.85678	384.188941	6.083486798	391.23907	
348.194375	26.88685	384.185355	6.0833555	391.237486	
349.245276	26.904499	384.185269	6.083343817	391.235446	
350.295738	26.912337	384.190641	6.083441419	391.237195	
351.346017	26.910177	384.18649	6.083484886	391.235659	
352.400346	26.886741	384.182148	6.083364923	391.232815	
353.454883	26.924949	384.185426	6.08352814	391.234861	
354.50763	26.996682	384.183523	6.083521847	391.233363	
355.556927	27.125769	384.180085	6.083465447	391.230619	
356.610343	27.28915	384.177115	6.083551021	391.228176	
357.660088	27.447781	384.178929	6.083748141	391.227269	
358.710184	27.602736	384.180262	6.083752697	391.224813	
359.761307	27.745931	384.180008	6.083774776	391.22163	
360.814893	27.852552	384.172754	6.083743272	391.217539	
361.867477	27.981313	384.175212	6.083860662	391.215117	
362.918937	28.076166	384.166369	6.08381539	391.211353	
363.969983	28.169962	384.171046	6.083794006	391.210746	
365.021698	28.252473	384.168041	6.083821997	391.208212	
366.073782	28.305183	384.168357	6.083755687	391.206055	
367.125049	28.352815	384.161064	6.083665559	391.203162	
368.175968	28.397461	384.159216	6.083728356	391.201831	
369.227152	28.433008	384.156367	6.083566876	391.200047	
370.279166	28.491281	384.154278	6.083550604	391.199249	
371.329632	28.538967	384.153762	6.083655613	391.197334	
372.381715	28.596028	384.148601	6.08343551	391.193411	
373.431828	28.655429	384.152234	6.083575848	391.194661	
374.479968	28.740556	384.146762	6.083575917	391.192847	
375.532259	28.80097	384.14955	6.083560929	391.192614	
376.5825	28.888038	384.147676	6.083535895	391.190455	
377.634873	28.97658	384.142826	6.083587461	391.187249	
378.688968	29.095204	384.145815	6.083531722	391.186576	
379.740087	29.198678	384.150213	6.08342925	391.184806	
380.791948	29.322668	384.140162	6.083457451	391.178763	
381.843321	29.437336	384.139341	6.083540797	391.176085	
382.896352	29.556086	384.139012	6.08347063	391.174521	
383.947033	29.676506	384.140334	6.083408665	391.173537	
384.9992	29.796302	384.14138	6.083570076	391.17273	
386.051775	29.890131	384.134133	6.083452999	391.16723	
387.102479	29.99952	384.131215	6.083382343	391.163865	
388.152185	30.111379	384.131075	6.083282444	391.161441	
389.203312	30.189805	384.131153	6.083380535	391.161175	
390.251804	30.270994	384.12869	6.083336757	391.157803	
391.302726	30.368962	384.129148	6.083264363	391.156783	
392.354364	30.458709	384.12608	6.083162066	391.152776	
393.405997	30.520566	384.125059	6.083145966	391.152004	
394.45587	30.579226	384.12296	6.083153651	391.150792	
395.505917	30.661543	384.119173	6.08308303	391.148919	
396.557417	30.713189	384.118074	6.082995857	391.147248	
397.607581	30.772966	384.115387	6.08296804	391.147012	
398.660902	30.833037	384.116089	6.082995371	391.144764	
399.713687	30.895933	384.115729	6.083073745	391.144883	
400.765708	30.965645	384.113418	6.082970959	391.142771	
401.816205	31.047627	384.110565	6.083048988	391.140407	
402.866875	31.13311	384.109373	6.083007331	391.138363	
403.917896	31.232809	384.104744	6.083092695	391.137713	
404.968845	31.36666	384.10165	6.08319176	391.137006	
406.01918	31.542654	384.102248	6.083162866	391.132194	
407.069427	31.737888	384.104608	6.083058411	391.124276	
408.120447	31.903843	384.093737	6.083291345	391.119747	
409.173272	32.058	384.093481	6.083103198	391.115751	
410.22509	32.199733	384.088971	6.08299551	391.112355	
411.279215	32.288612	384.088781	6.08306926	391.10909	
412.330514	32.371756	384.082941	6.083048397	391.105614	
413.383459	32.43427	384.084137	6.083127779	391.105969	
414.436166	32.452329	384.083677	6.083110604	391.10607	
415.49187	32.492019	384.08329	6.083104865	391.105678	
416.542945	32.48131	384.082875	6.083086473	391.10451	
417.596545	32.490436	384.07809	6.083037651	391.100492	
418.647138	32.50244	384.078677	6.083085638	391.102181	
419.700678	32.522087	384.073504	6.082934138	391.099867	
420.751005	32.552171	384.077285	6.083012652	391.100387	
421.802768	32.584993	384.075333	6.083000516	391.100219	
422.854656	32.654522	384.072023	6.082920645	391.09873	
423.905967	32.738429	384.071106	6.082896618	391.097944	
424.960176	32.835803	384.069045	6.082857606	391.097527	
426.014489	32.951221	384.069049	6.082869497	391.095355	
427.066967	33.114242	384.067453	6.082959103	391.094539	
428.118251	33.283074	384.069429	6.083030908	391.095752	
429.169505	33.49628	384.062213	6.082957783	391.090161	
430.221772	33.676237	384.061762	6.083010427	391.088859	
431.274771	33.90017	384.056938	6.082875686	391.08355	
432.325935	34.097733	384.053309	6.083103059	391.082297	
433.377094	34.242412	384.04385	6.082991476	391.078499	
434.428078	34.365597	384.042573	6.083072945	391.075986	
435.478478	34.444556	384.042102	6.083215752	391.078122	
436.557959	34.486499	384.038253	6.083044572	391.074512	
437.611227	34.482866	384.036928	6.08306088	391.074757	
438.661517	34.39116	384.036868	6.083062584	391.075282	
439.711088	34.28399	384.034729	6.082996656	391.074062	
440.761405	34.220685	384.033185	6.083064497	391.074511	
441.815474	34.238892	384.031757	6.083065225	391.074183	
442.866496	34.269174	384.036694	6.083060149	391.07472	
443.918713	34.324655	384.035961	6.083079206	391.073909	
444.970202	34.369044	384.035393	6.083036505	391.072844	
446.020791	34.458414	384.029464	6.083001315	391.070832	
447.077112	34.586213	384.032452	6.083074129	391.071807	
448.125444	34.75024	384.029834	6.083025482	391.071196	
449.176943	34.940567	384.027664	6.082821963	391.065793	
450.228366	35.135931	384.020789	6.082886639	391.063332	
451.279106	35.379188	384.018898	6.083040156	391.061485	
452.328218	35.616435	384.019613	6.083243432	391.061365	
453.380697	35.810678	384.016266	6.083228167	391.060875	
454.4301	35.998367	384.013376	6.083077501	391.056339	
455.479109	36.131587	384.005441	6.083017034	391.05095	
456.529245	36.226085	384.005921	6.083091828	391.051795	
457.583364	36.277673	384.009776	6.082984973	391.049872	
458.634897	36.301126	384.002629	6.082843835	391.046417	
459.68743	36.256155	384.002801	6.082980174	391.048698	
460.737582	36.188239	384.003025	6.082745431	391.044506	
461.791567	36.102145	383.998403	6.082834307	391.045074	
462.840892	36.065058	383.998824	6.082726551	391.043729	
463.890926	36.040446	384.001064	6.082784931	391.045798	
464.942098	36.067165	383.999344	6.082671924	391.043841	
465.992307	36.122062	384.001692	6.082824677	391.044334	
467.041004	36.174449	384.000732	6.082766155	391.045229	
468.092437	36.259434	383.998065	6.082670047	391.044157	
469.14169	36.398816	383.997082	6.082794946	391.043587	
470.191261	36.620564	383.987832	6.082667404	391.039458	
471.241475	36.860211	383.98899	6.082657425	391.037591	
472.293239	37.111453	383.989921	6.082627208	391.034434	
473.343664	37.448582	383.981454	6.082544451	391.024114	
474.397892	37.726408	383.974038	6.082599113	391.018093	
475.451872	37.952968	383.974945	6.08261789	391.013816	
476.503042	38.09419	383.973899	6.082708609	391.011628	
477.555525	38.163261	383.965476	6.082619453	391.004811	
478.607832	38.151938	383.963894	6.082538714	391.003357	
479.658846	37.891344	383.964895	6.082355606	391.001578	
480.710646	37.560441	383.963058	6.082212139	391.002658	
481.762305	37.422926	383.969792	6.082116239	391.005759	
482.814408	37.398288	383.969256	6.082098365	391.003516	
483.866311	37.602505	383.964575	6.082320626	391.003223	
484.918335	37.787757	383.967712	6.082307239	391.002123	
485.970835	37.920017	383.962011	6.082480124	391.001575	
487.022201	37.953543	383.966531	6.082392326	391.001682	
488.074116	38.04763	383.962627	6.082344481	391.000315	
489.126143	38.188355	383.964561	6.08239935	391.001749	
490.17657	38.366388	383.959833	6.082482593	390.998883	
491.227482	38.606626	383.959479	6.082345349	390.995705	
492.27969	38.814989	383.95174	6.082388919	390.990669	
493.330966	39.0107	383.949545	6.082303936	390.986456	
494.383369	39.163535	383.945238	6.082250493	390.982912	
495.43366	39.318511	383.938822	6.082138875	390.977144	
496.48666	39.41865	383.938471	6.082547408	390.976524	
497.5389	39.495649	383.932025	6.08215494	390.970844	
498.590085	39.553254	383.936338	6.082227718	390.97296	
499.643453	39.593848	383.935587	6.082088804	390.969717	
500.694088	39.606038	383.924592	6.082244197	390.967397	
501.745384	39.603579	383.92774	6.082128582	390.967054	
502.796678	39.610626	383.924156	6.081875131	390.964433	
503.848033	39.604887	383.922685	6.081852773	390.962905	
504.901638	39.588732	383.922319	6.081688479	390.962899	
505.955186	39.627193	383.922448	6.08152853	390.9633	
507.003335	39.656257	383.918391	6.0812909	390.960231	
508.05443	39.738397	383.919775	6.081404254	390.960905	
509.109264	39.830959	383.91943	6.081291664	390.959896	
510.162062	39.975092	383.920022	6.081280469	390.959445	
511.215454	40.100464	383.917627	6.081335685	390.956611	
512.266091	40.282203	383.913241	6.081243576	390.952041	
513.316525	40.483542	383.906484	6.081218714	390.949146	
514.368784	40.710462	383.898847	6.081162489	390.946061	
515.419886	40.857632	383.894234	6.081083486	390.943286	
516.474275	40.975013	383.892115	6.080918809	390.939305	
517.524874	41.092655	383.8923	6.080942488	390.936764	
518.574296	41.1782	383.884241	6.081010606	390.932352	
519.625587	41.254639	383.891622	6.080849995	390.933676	
520.678076	41.343508	383.887157	6.080832853	390.931615	
521.730392	41.342618	383.887461	6.080800968	390.931823	
522.781932	41.324329	383.887164	6.080800551	390.931522	
523.832229	41.310522	383.884513	6.080782713	390.930534	
524.882429	41.320839	383.886439	6.080593521	390.928988	
525.933681	41.345984	383.879077	6.080664141	390.92733	
526.985653	41.404929	383.885404	6.080651067	390.929129	
528.037934	41.426884	383.878513	6.080635768	390.927105	
529.091206	41.524993	383.878702	6.080617096	390.926379	
530.142668	41.634928	383.879882	6.080617756	390.927332	
531.194094	41.808183	383.873796	6.080481903	390.922617	
532.247307	42.104643	383.865536	6.080366252	390.92097	
533.299238	42.403172	383.86795	6.080469941	390.918604	
534.347658	42.639646	383.861508	6.08056299	390.91355	
535.401816	42.831056	383.858939	6.080433188	390.913267	
536.455139	42.985413	383.859222	6.080398172	390.912786	
537.506342	43.042682	383.855466	6.08040012	390.911099	
538.55991	42.951442	383.84881	6.080240656	390.906071	
539.611502	42.692645	383.848263	6.080060714	390.905171	
540.662868	42.752526	383.85281	6.080167671	390.907277	
541.714568	42.463316	383.852119	6.079917733	390.906139	
542.765916	42.69333	383.851376	6.08025102	390.906952	
543.818423	42.748483	383.849807	6.080276089	390.907207	
544.869076	42.838981	383.844766	6.080175601	390.903205	
545.920623	42.886952	383.846948	6.080082063	390.902689	
546.971428	42.986561	383.849969	6.080120104	390.90582	
548.022779	43.088335	383.852004	6.079937137	390.90337	
549.074789	43.192549	383.842366	6.079973055	390.901104	
550.128104	43.33374	383.834689	6.080085923	390.898966	
551.179778	43.515586	383.832619	6.080150286	390.896622	
552.231842	43.706211	383.831614	6.080102787	390.893926	
553.280447	43.882368	383.833043	6.079977087	390.890279	
554.330609	44.06453	383.828909	6.080138428	390.888836	
555.382912	44.088552	383.824512	6.079946734	390.883746	
556.435534	44.239226	383.822958	6.080128449	390.885233	
557.485469	44.287156	383.824613	6.07997542	390.883774	
558.53647	44.239063	383.82134	6.079864323	390.881081	
559.587233	44.472627	383.819989	6.08009639	390.882662	
560.636306	44.618515	383.817954	6.080035678	390.881549	
561.688446	44.643757	383.817289	6.080111828	390.879971	
562.739802	44.49787	383.811145	6.079993291	390.877011	
563.79197	44.49672	383.816956	6.079889256	390.875731	
564.845692	44.707159	383.810583	6.080097189	390.874392	
565.895893	44.175911	383.811567	6.079532428	390.872611	
566.945821	44.998579	383.805795	6.080148755	390.872416	
567.995846	45.299795	383.811347	6.080084638	390.868942	
569.044412	45.490406	383.800718	6.080198341	390.865061	
570.094223	44.620747	383.799731	6.079765398	390.865779	
571.145891	45.302746	383.80063	6.080054072	390.861052	
572.196364	45.65846	383.79592	6.08024031	390.858859	
573.245447	46.044718	383.799122	6.080250428	390.858403	
574.296995	45.475405	383.785808	6.079928929	390.85391	
575.358229	46.076587	383.790985	6.080138845	390.851519	
576.410688	45.605334	383.790136	6.079941379	390.852833	
577.460049	45.041989	383.795384	6.079324356	390.850449	
578.510239	44.642985	383.785485	6.079189651	390.848425	
579.560441	44.832885	383.783343	6.079356657	390.849592	
580.611151	46.02217	383.783165	6.080280609	390.84983	
581.663023	46.935194	383.781579	6.080191387	390.846297	
582.715018	47.518987	383.759881	6.080303524	390.832458	
583.766918	47.028484	383.75576	6.079875276	390.827705	
584.817077	46.464428	383.760755	6.079334613	390.824846	
585.866697	46.17104	383.760981	6.0792207	390.825868	
586.917484	45.991067	383.755169	6.079138014	390.824739	
587.968585	45.956688	383.759983	6.079246779	390.828674	
589.018867	46.300945	383.757026	6.079378669	390.826461	
590.070998	46.638489	383.759004	6.079747631	390.828868	
591.122078	46.796414	383.762376	6.079833029	390.828354	
592.17208	46.977122	383.756639	6.079995343	390.827396	
593.221124	47.17866	383.746912	6.079952956	390.825713	
594.270325	47.359211	383.755124	6.07983296	390.825764	
595.321377	47.527518	383.740706	6.079827709	390.81893	
596.372449	47.654023	383.74403	6.079747317	390.817223	
597.423428	47.723881	383.745165	6.079546998	390.814336	
598.474823	47.789973	383.738927	6.079568314	390.812196	
599.529137	47.816141	383.74228	6.079613933	390.812395	
600.582078	47.822787	383.738065	6.079440492	390.808361	
601.637073	47.838115	383.738305	6.079553812	390.809329	
602.688511	47.820754	383.732328	6.079631424	390.807444	
603.73896	47.849438	383.740512	6.079424741	390.807483	
604.789117	47.865524	383.737971	6.079455514	390.806538	
605.838327	47.913659	383.738604	6.079486809	390.806089	
606.889534	47.952786	383.740259	6.079289236	390.804419	
607.940854	48.057444	383.731292	6.079450124	390.804417	
608.991555	48.178901	383.731208	6.079461947	390.803039	
610.042624	48.317639	383.726737	6.079365525	390.801356	
611.093853	48.472742	383.723978	6.079194067	390.795721	
612.14674	48.628836	383.723388	6.079038985	390.793173	
613.197879	48.77918	383.726895	6.079052824	390.792608	
614.248089	48.919092	383.726728	6.078797425	390.789996	
615.299131	49.063578	383.715908	6.079002717	390.788284	
616.348733	49.19195	383.711435	6.078844577	390.784143	
617.426133	49.30101	383.708228	6.078795374	390.78124	
618.4778	49.410071	383.709998	6.078680594	390.780968	
619.530024	49.497783	383.706868	6.078622178	390.778603	
620.582815	49.565649	383.707835	6.07861018	390.777535	
621.634028	49.639841	383.705912	6.078538379	390.775542	
622.684446	49.691015	383.703084	6.078504719	390.773573	
623.73317	49.741925	383.69934	6.078392997	390.770803	
624.784729	49.780575	383.701662	6.078380828	390.770548	
625.835896	49.823348	383.697206	6.078133566	390.768238	
626.889219	49.876269	383.699257	6.0780828	390.770412	
627.942461	49.95031	383.694972	6.078081757	390.770124	
628.996285	50.000566	383.689322	6.077884046	390.765204	
630.049843	50.047157	383.69031	6.077925076	390.766391	
631.100371	50.08406	383.689957	6.077866555	390.765478	
632.152152	50.160569	383.688958	6.077827472	390.763415	
633.203389	50.25549	383.687762	6.077804104	390.75955	
634.256345	50.368547	383.684425	6.077739431	390.756731	
635.305748	50.476409	383.681264	6.077799167	390.751626	
636.356296	50.618901	383.679107	6.077816693	390.746961	
637.406708	50.7743	383.675179	6.077789641	390.742409	
638.458813	50.963493	383.671804	6.077823194	390.738974	
639.510476	51.141773	383.672128	6.077818396	390.736979	
640.561522	51.293374	383.662376	6.077657787	390.732737	
641.612232	51.459322	383.658784	6.077617103	390.731602	
642.663155	51.584195	383.655591	6.077649824	390.727351	
643.713792	51.671438	383.650792	6.077593702	390.724493	
644.764256	51.756083	383.653881	6.077656777	390.722682	
645.81564	51.825777	383.6523	6.07759843	390.721091	
646.864389	51.861421	383.6472	6.077537894	390.719499	
647.915485	51.893341	383.645001	6.07758087	390.718423	
648.965648	51.884974	383.642441	6.077479929	390.715775	
650.015939	51.877521	383.644168	6.077463935	390.71602	
651.067245	51.534646	383.640839	6.076973201	390.706312	
652.117989	51.360452	383.640357	6.076661334	390.693226	
653.169023	50.014108	383.61798	6.074526288	390.66987	
654.221615	52.206212	383.582567	6.074333479	390.636345	
655.272291	54.19029	383.547185	6.074312651	390.600906	
656.320943	55.267342	383.516381	6.073769345	390.576701	
657.373827	53.833944	383.513806	6.07265401	390.571059	
658.427294	52.302263	383.512268	6.071683047	390.571582	
659.478223	51.560865	383.511343	6.071488743	390.571979	
660.528193	51.301596	383.510628	6.07159723	390.572096	
661.579096	52.048805	383.51414	6.072304034	390.573585	
662.629518	52.558561	383.514006	6.072680263	390.573084	
663.680655	53.15654	383.515159	6.073185147	390.574904	
664.733568	53.641999	383.51086	6.073582793	390.574028	
665.785132	53.994688	383.50756	6.073732243	390.574786	
666.835543	54.20748	383.496576	6.073438874	390.572027	
667.888938	54.185674	383.495731	6.07309081	390.572979	
668.941567	53.631441	383.495393	6.072735583	390.574314	
669.992241	53.328107	383.492343	6.072418606	390.571194	
671.042496	53.166804	383.494473	6.072305772	390.571281	
672.093512	53.101376	383.496234	6.072392249	390.574444	
673.144452	53.991298	383.488045	6.072929227	390.571501	
674.197237	56.937278	383.462219	6.073877518	390.547378	
675.247136	56.401617	383.44823	6.072472292	390.523815	
676.299634	54.48496	383.45103	6.071322187	390.527904	
677.35067	52.82001	383.452342	6.070975061	390.528055	
678.40155	52.222889	383.459905	6.070823389	390.529413	
679.452315	53.235321	383.459722	6.071662184	390.528835	
680.503965	54.144142	383.457757	6.072341204	390.528046	
681.555919	54.922768	383.458172	6.072931071	390.527747	
682.607172	55.486916	383.456655	6.073351076	390.527537	
683.658051	55.801844	383.457498	6.073515198	390.529435	
684.709832	55.563676	383.454563	6.07313031	390.526054	
685.760366	55.00692	383.457298	6.072781447	390.527188	
686.810856	54.780877	383.458165	6.072590796	390.52732	
687.86018	54.594898	383.453657	6.072528798	390.527339	
688.912661	54.504799	383.456717	6.072633007	390.530212	
689.963633	54.57145	383.455938	6.072576782	390.528289	
691.014969	54.826854	383.457149	6.072832735	390.530051	
692.06633	55.114957	383.455928	6.073047242	390.528659	
693.12005	55.294097	383.454666	6.073035351	390.5265	
694.171628	55.485819	383.456439	6.073121862	390.526655	
695.222428	55.727261	383.455778	6.07293806	390.528542	
696.273619	55.921879	383.45527	6.072560196	390.529046	
697.324337	56.130045	383.453084	6.072679914	390.52893	
698.375617	56.28912	383.446604	6.072624906	390.525317	
699.427074	56.402152	383.447508	6.072670074	390.524177	
700.476631	56.476788	383.442512	6.072566768	390.520289	
701.527674	56.518458	383.437243	6.072531545	390.516437	
702.575709	56.522927	383.436456	6.072531892	390.516071	
703.625575	56.508387	383.440198	6.072484914	390.5169	
704.679066	56.456808	383.43948	6.072494096	390.516558	
705.73164	56.439349	383.436509	6.072447154	390.513842	
706.782136	56.354445	383.438223	6.072349688	390.514878	
707.833251	56.426573	383.43957	6.072416555	390.514977	
708.885934	56.435108	383.435966	6.072380669	390.514522	
709.935457	56.496533	383.436003	6.072465827	390.516399	
710.985536	56.588234	383.437283	6.07230525	390.51491	
712.037007	56.73781	383.43166	6.072207403	390.512046	
713.089147	56.906101	383.432009	6.072230213	390.512899	
714.139493	57.108168	383.426111	6.072032327	390.507369	
715.189966	57.317012	383.426528	6.072102566	390.505693	
716.242685	57.526877	383.42114	6.071967479	390.501432	
717.294691	57.721057	383.417356	6.071943973	390.49766	
718.347278	57.889794	383.419837	6.071965567	390.495575	
719.400179	58.03646	383.416181	6.07189936	390.492256	
720.451362	58.158808	383.411562	6.071869667	390.488365	
721.502861	58.229552	383.409029	6.071801095	390.484962	
722.552312	58.276452	383.407004	6.071703667	390.481624	
723.602793	58.302558	383.408797	6.071693721	390.482236	
724.654218	58.315914	383.405037	6.071656897	390.478733	
725.708081	58.326244	383.403851	6.071556826	390.476673	
726.759944	58.304329	383.406072	6.071609958	390.477295	
727.812873	58.306792	383.405549	6.071590347	390.478187	
728.865517	58.31356	383.408699	6.071647336	390.479748	
729.915231	58.340939	383.402518	6.071561033	390.476633	
730.966297	58.398171	383.40547	6.071605228	390.477197	
732.017342	58.452946	383.403727	6.071570108	390.476078	
733.067472	58.553048	383.399093	6.071468611	390.472838	
734.115916	58.651578	383.402435	6.071555053	390.473402	
735.164885	58.775589	383.397185	6.071439018	390.470136	
736.215401	58.928306	383.393606	6.071380742	390.465932	
737.267702	59.099546	383.391122	6.071342597	390.463281	
738.318414	59.292962	383.393557	6.071436724	390.464485	
739.369223	59.463393	383.388358	6.071435856	390.460789	
740.42013	59.638121	383.384838	6.071280218	390.456317	
741.471442	59.785201	383.384425	6.071322779	390.455489	
742.524478	59.912108	383.376279	6.071147354	390.451271	
743.576076	60.032678	383.372699	6.071074161	390.448139	
744.628286	60.108339	383.372668	6.071052499	390.447282	
745.681493	60.153373	383.372668	6.07095559	390.445419	
746.731211	60.196529	383.370508	6.070990362	390.444557	
747.782325	60.212367	383.369775	6.070944427	390.442144	
748.831013	60.211312	383.367108	6.070904719	390.440554	
749.881363	60.171606	383.368179	6.070884203	390.442572	
750.933562	59.935696	383.361108	6.070389404	390.432015	
751.984592	59.868416	383.359932	6.070150765	390.423993	
753.036729	59.883029	383.352128	6.069797415	390.412538	
754.08714	59.569255	383.347821	6.069002155	390.396543	
755.13678	59.929437	383.341092	6.068554852	390.373488	
756.187596	60.99328	383.322042	6.068226329	390.329002	
757.240274	61.657578	383.296969	6.067012104	390.27265	
758.29086	62.426266	383.270161	6.066110477	390.231768	
759.34191	63.088925	383.247482	6.065513517	390.199181	
760.392142	56.869444	382.981094	6.057865498	390.128791	
761.443711	60.144004	382.905446	6.057020407	390.072198	
762.493422	62.848059	382.790731	6.055193611	389.987951	
763.5429	64.189518	382.707538	6.053818671	389.940616	
764.594312	63.313493	382.692582	6.05266081	389.933339	
765.644371	62.124211	382.691722	6.051949627	389.933724	
766.694282	61.032272	382.69184	6.051270885	389.933314	
767.745644	60.329505	382.694695	6.051080162	389.935773	
768.795963	60.678815	382.698327	6.051665994	389.936068	
769.845295	61.298207	382.697659	6.052060201	389.935491	
770.9226	61.897812	382.693675	6.05252694	389.933644	
771.97434	62.414777	382.692713	6.052787726	389.932673	
773.025179	62.751996	382.689282	6.052852749	389.932576	
774.077698	62.992219	382.685583	6.052624856	389.930898	
775.128723	63.090375	382.687236	6.052584278	389.930331	
776.179017	63.046681	382.679948	6.052477843	389.926295	
777.228576	62.549114	382.678869	6.052117121	389.924685	
778.278545	62.341251	382.680167	6.051952581	389.92392	
779.33079	62.196934	382.676036	6.051888358	389.922604	
780.385866	62.126318	382.679775	6.051869931	389.924769	
781.435896	62.252474	382.677075	6.051940865	389.922843	
782.489086	62.561404	382.679223	6.052192123	389.923465	
783.540258	62.700242	382.677731	6.052225158	389.922669	
784.590958	62.800109	382.676764	6.052071049	389.921594	
785.641033	62.954748	382.672111	6.052048274	389.917992	
786.690136	63.147693	382.669785	6.052115035	389.914921	
787.741846	63.37968	382.662531	6.051909709	389.907235	
788.79215	63.598976	382.657793	6.051629623	389.904913	
789.841088	63.78801	382.642063	6.051243033	389.899732	
790.890872	63.941511	382.635003	6.051056759	389.893989	
791.93929	64.07969	382.629498	6.050998726	389.89071	
792.989403	64.193957	382.629365	6.050821599	389.887778	
794.039578	64.267096	382.625214	6.050644751	389.883028	
795.089748	64.324326	382.627098	6.050726326	389.883211	
796.140055	64.363432	382.619456	6.050591725	389.879168	
797.18892	64.390333	382.618159	6.050436365	389.876354	
798.239511	64.391951	382.62288	6.050614918	389.878297	
799.288703	64.371695	382.61913	6.050581223	389.874832	
800.338994	64.355834	382.616613	6.050529763	389.873845	
801.390279	64.349662	382.619061	6.050573713	389.87459	
802.441538	64.364016	382.614943	6.050546905	389.871162	
803.493902	64.376289	382.615347	6.050686859	389.871353	
804.544715	64.421013	382.615046	6.050563316	389.871172	
805.597612	64.495285	382.61465	6.050933774	389.871584	
806.648246	64.597384	382.612692	6.050923517	389.868298	
807.699156	64.708893	382.607462	6.05119755	389.865617	
808.750257	64.840276	382.604104	6.051115942	389.8616	
809.801211	65.025987	382.599308	6.051110101	389.855696	
810.85298	65.241032	382.594658	6.051156312	389.851282	
811.902561	65.538	382.588882	6.05124578	389.843117	
812.95367	65.808963	382.585735	6.051399471	389.837651	
814.005129	66.031874	382.574944	6.051184685	389.829443	
815.057138	66.205052	382.56977	6.051234339	389.826179	
816.107002	66.313474	382.56138	6.051101825	389.820821	
817.157327	66.390352	382.561283	6.051145638	389.819385	
818.206644	66.416976	382.55844	6.051073833	389.81663	
819.257917	66.424531	382.555464	6.051041496	389.815174	
820.310131	66.365372	382.554373	6.051025361	389.812916	
821.360996	66.296015	382.548935	6.050843228	389.809686	
822.410939	66.226569	382.551605	6.050844688	389.810596	
823.462255	66.128537	382.548196	6.050781056	389.808961	
824.512356	66.155571	382.549098	6.050758837	389.808223	
825.5618	66.195944	382.548838	6.050795695	389.808908	
826.611251	66.184498	382.550749	6.050859048	389.81044	
827.660345	66.21969	382.545485	6.050712103	389.805301	
828.710749	66.313206	382.543534	6.050829284	389.805176	
829.762291	66.423854	382.544215	6.050856372	389.802554	
830.813585	66.599023	382.540181	6.050837595	389.795106	
831.86405	66.788937	382.5372	6.050852722	389.791751	
832.915288	67.072502	382.527707	6.050794931	389.780737	
833.966025	67.461354	382.521028	6.049591762	389.768754	
835.015659	67.807623	382.510687	6.049033747	389.756312	
836.066915	68.127983	382.502917	6.048928111	389.7471	
837.117675	68.353995	382.494878	6.048885132	389.736737	
838.168303	68.505354	382.487216	6.048793509	389.731645	
839.216663	68.507602	382.481502	6.048574345	389.724664	
840.268939	68.336968	382.475106	6.048248187	389.715762	
841.320588	67.877248	382.47605	6.047948838	389.712069	
842.371969	67.572715	382.478217	6.047873523	389.713108	
843.423478	67.497963	382.475031	6.047716493	389.708935	
844.474412	67.574356	382.478618	6.047807074	389.708841	
845.525768	67.713802	382.479067	6.047826268	389.707615	
846.577022	67.837273	382.476521	6.047805091	389.70414	
847.626086	67.865803	382.476733	6.047771155	389.700726	
848.677091	67.986393	382.469377	6.047641388	389.693293	
849.727892	68.154711	382.46455	6.047590133	389.687073	
850.781062	68.39848	382.458106	6.047406749	389.677339	
851.832247	68.698637	382.44817	6.047339847	389.663021	
852.885282	69.028547	382.441677	6.04746732	389.654911	
853.934677	69.325167	382.436274	6.047545938	389.6453	
854.984957	69.57502	382.423005	6.047282751	389.633783	
856.036162	69.767775	382.416566	6.047175656	389.625699	
857.08845	69.887551	382.413303	6.046879089	389.618387	
858.140525	69.94407	382.408796	6.04657275	389.611991	
859.189797	69.94003	382.403175	6.046223401	389.603452	
860.242414	69.832796	382.401741	6.046045404	389.601604	
861.294073	69.582392	382.400894	6.04577495	389.597696	
862.34707	69.352787	382.402396	6.045705478	389.595802	
863.398811	69.316806	382.398788	6.045500603	389.590611	
864.448594	69.397438	382.403804	6.045605647	389.590774	
865.498104	69.345111	382.399613	6.045300665	389.585198	
866.547776	69.323926	382.399065	6.045020058	389.582452	
867.59821	69.391101	382.394157	6.044694284	389.57196	
868.649853	69.505944	382.392757	6.044456376	389.56329	
869.702021	69.688887	382.383622	6.044272433	389.554568	
870.753325	70.022682	382.376132	6.043911504	389.54302	
871.805459	70.5239	382.366789	6.043454187	389.53088	
872.856375	71.085594	382.360228	6.043241177	389.509142	
873.906358	71.546237	382.344904	6.043148442	389.493254	
874.957679	71.290587	382.319431	6.04283508	389.484205	
876.011254	71.659181	382.307841	6.042832505	389.476651	
877.063107	71.895354	382.302873	6.042736676	389.469899	
878.113227	71.690308	382.297438	6.042476165	389.465524	
879.162621	71.105925	382.293132	6.042052786	389.462608	
880.213235	70.879772	382.293627	6.042001152	389.463209	
881.261346	70.755405	382.2945	6.041946282	389.462295	
882.311687	70.67776	382.293847	6.041858135	389.461457	
883.360228	70.714988	382.292251	6.041915056	389.462426	
884.410066	71.000431	382.292597	6.042133145	389.461885	
885.459548	71.239076	382.289732	6.042313957	389.462168	
886.511158	71.310589	382.295018	6.042410899	389.464138	
887.563366	71.41917	382.295555	6.042393026	389.462639	
888.615807	71.569096	382.287505	6.042228521	389.459163	
889.668067	71.833962	382.28549	6.042295598	389.45694	
890.721334	72.125365	382.281382	6.042325431	389.453423	
891.771537	72.377967	382.272931	6.042071145	389.447715	
892.821267	72.614774	382.270451	6.042020866	389.444574	
893.87399	72.783988	382.265993	6.042098025	389.440119	
894.926042	72.931254	382.253881	6.04198213	389.435164	
895.976362	73.018357	382.247907	6.041906225	389.429015	
897.025223	73.049141	382.244165	6.041729966	389.426283	
898.076911	73.007718	382.24394	6.041689874	389.42464	
899.128039	72.832988	382.242926	6.04153768	389.422839	
900.180577	72.65272	382.239577	6.041520746	389.423495	
901.232315	72.579546	382.240169	6.041541748	389.422412	
902.287407	72.583734	382.242804	6.041623531	389.425109	
903.338561	72.728434	382.237669	6.041560317	389.421273	
904.390907	72.831189	382.240685	6.041730697	389.422517	
905.443023	72.855882	382.243089	6.041595644	389.422735	
906.496004	72.926582	382.242422	6.041683338	389.422676	
907.547424	73.026958	382.241964	6.041766859	389.421017	
908.599473	73.167555	382.237501	6.041470536	389.417575	
909.65259	73.356501	382.23092	6.041479401	389.413769	
910.704885	73.569734	382.224679	6.041484513	389.401189	
911.75735	73.761706	382.218448	6.041449048	389.396283	
912.80795	73.970402	382.218302	6.041346401	389.390372	
913.858012	74.155515	382.210455	6.041211904	389.385362	
914.908581	74.321842	382.209669	6.041102234	389.380654	
915.95899	74.476465	382.206102	6.040959915	389.376177	
917.008328	74.596022	382.200846	6.040876288	389.371226	
918.060998	74.685314	382.196401	6.040776356	389.365025	
919.112195	74.77075	382.193534	6.040747912	389.359826	
920.16368	74.809778	382.189445	6.040668772	389.354203	
921.216063	74.825645	382.188506	6.040701005	389.352563	
922.267646	74.831693	382.186639	6.040659975	389.35031	
923.318592	74.806686	382.188172	6.040752607	389.351446	
924.372632	74.784479	382.185289	6.040596864	389.348578	
925.421634	74.768965	382.186508	6.040563971	389.351144	
926.472712	74.768191	382.183486	6.040532709	389.351359	
927.547374	74.792553	382.181685	6.040509066	389.348633	
928.598215	74.829857	382.184066	6.040490429	389.349599	
929.651442	74.90127	382.181486	6.040491575	389.347719	
930.702525	74.976272	382.181376	6.040465602	389.345195	
931.753955	75.101734	382.178034	6.040393694	389.340253	
932.804773	75.228988	382.175591	6.040234855	389.330347	
933.856945	75.38846	382.169468	6.040025324	389.32225	
934.90947	75.58064	382.167657	6.040020212	389.317401	
935.961875	75.747597	382.163849	6.039971635	389.314986	
937.013385	75.932753	382.15983	6.039877751	389.308994	
938.063449	76.135116	382.156361	6.039838911	389.303992	
939.113457	76.327055	382.148841	6.039872536	389.298927	
940.165921	76.488103	382.144097	6.039989855	389.292675	
941.216011	76.626344	382.130545	6.039918747	389.286431	
942.266337	76.732456	382.124103	6.039844893	389.281416	
943.318528	76.822646	382.120405	6.039845657	389.278441	
944.369708	76.88854	382.118019	6.03986179	389.277476	
945.418568	76.911712	382.113664	6.039805183	389.271664	
946.469595	76.915843	382.113658	6.039855429	389.271998	
947.520036	76.897484	382.11083	6.039779175	389.269343	
948.569262	76.871106	382.109019	6.039762832	389.267833	
949.649362	76.834224	382.110257	6.039771523	389.267487	
950.699543	76.811605	382.108289	6.03970984	389.265618	
951.749705	76.802244	382.108784	6.039737378	389.266721	
952.802066	76.808738	382.107508	6.03972493	389.2659	
953.851761	76.826891	382.108033	6.039739396	389.265264	
954.902173	76.862426	382.10245	6.039669191	389.263846	
955.951321	76.950571	382.105536	6.039770795	389.26407	
957.000792	77.068584	382.097135	6.039691271	389.259288	
958.051015	77.230858	382.095127	6.039701007	389.256485	
959.102389	77.446582	382.090256	6.039630422	389.250605	
960.154985	77.709998	382.083924	6.039697078	389.245661	
961.208226	78.001054	382.074465	6.039584628	389.235884	
962.260494	78.27325	382.06722	6.039666793	389.229283	
963.330475	78.500172	382.064753	6.039533234	389.225042	
964.380424	78.704274	382.055986	6.038889229	389.215317	
965.430842	78.880522	382.05067	6.038494605	389.211912	
966.481328	78.986113	382.041527	6.03811956	389.202221	
967.531457	79.058888	382.035866	6.037979811	389.19736	
968.584108	79.053392	382.035872	6.037968476	389.196353	
969.633085	78.815607	382.033338	6.037795106	389.192903	
970.683958	78.477234	382.029911	6.037524616	389.191272	
971.733798	78.342335	382.036282	6.037532683	389.193171	
972.784219	78.339881	382.033837	6.037521105	389.189893	
973.834185	78.438918	382.033435	6.037600559	389.188376	
974.884748	78.642723	382.031041	6.037719024	389.186283	
975.93442	78.793309	382.034698	6.037866351	389.187631	
976.985483	78.830051	382.034963	6.037816976	389.185326	
978.036015	78.904719	382.029852	6.037750562	389.181179	
979.08871	79.010102	382.028882	6.037860093	389.178689	
980.140095	79.153485	382.022529	6.037803797	389.173389	
981.190589	79.304297	382.019275	6.037796773	389.171199	
982.241808	79.498583	382.017528	6.037746808	389.16922	
983.293644	79.672109	382.011332	6.037493878	389.164804	
984.345276	79.873545	382.008317	6.037420824	389.161828	
985.394541	80.06333	382.003504	6.037271793	389.158104	
986.446709	80.248994	381.99668	6.037070429	389.154367	
987.499158	80.385897	381.99221	6.036797437	389.149565	
988.551488	80.502768	381.991472	6.03692964	389.14781	
989.602252	80.589371	381.988368	6.0368642	389.145652	
990.656466	80.661144	381.981779	6.036700667	389.138228	
991.708541	80.699583	381.978365	6.036729425	389.135019	
992.758981	80.729015	381.975643	6.036653588	389.132731	
993.80954	80.718988	381.97646	6.036623892	389.131662	
994.861938	80.690621	381.974355	6.036627335	389.131671	
995.911233	80.685991	381.973973	6.03657716	389.130315	
996.961379	80.697681	381.976959	6.03663808	389.13156	
998.011889	80.717164	381.97487	6.036525349	389.129441	
999.063408	80.74973	381.971763	6.036532548	389.126614	
1000.117003	80.80814	381.966598	6.036541796	389.126201	
1001.167309	80.891899	381.96069	6.036474165	389.122753	
1002.220025	80.980232	381.959036	6.036505948	389.120899	
1003.27493	81.104201	381.958915	6.036576116	389.119736	
1004.327156	81.232886	381.950446	6.03647952	389.114911	
1005.377611	81.384124	381.948732	6.036554628	389.113886	
1006.428178	81.519015	381.945053	6.03644308	389.109544	
1007.477671	81.706236	381.93856	6.036104474	389.10454	
1008.528788	81.869581	381.936026	6.035862671	389.101031	
1009.581272	82.076201	381.924722	6.035768997	389.094983	
1010.635278	82.237436	381.920457	6.035847859	389.092364	
1011.686669	82.39413	381.916685	6.035714474	389.088192	
1012.740663	82.521739	381.913489	6.035583212	389.085833	
1013.791954	82.636749	381.904059	6.035487138	389.082112	
1014.841345	82.705827	381.897485	6.035465058	389.07853	
1015.890177	82.769345	381.896371	6.035532481	389.076202	
1016.943293	82.797819	381.896366	6.035626365	389.076012	
1017.994292	82.816838	381.891593	6.035700461	389.072332	
1019.045836	82.819831	381.889765	6.035646426	389.072343	
1020.098674	82.818302	381.891753	6.03566649	389.07343	
1021.153716	82.830888	381.889898	6.035667985	389.072201	
1022.204971	82.828568	381.884637	6.035535402	389.068102	
1023.260213	82.841278	381.88897	6.035565617	389.070097	
1024.313424	82.880895	381.88809	6.035614229	389.070963	
1025.363784	82.923019	381.885466	6.035597782	389.06927	
1026.417284	82.998566	381.881858	6.0356208	389.067113	
1027.469691	83.093895	381.879902	6.035630329	389.066668	
1028.520935	83.203499	381.878001	6.035547885	389.062542	
1029.573182	83.325461	381.869824	6.035467076	389.058138	
1030.625423	83.512468	381.867311	6.035564018	389.056581	
1031.676311	83.725682	381.862862	6.035613637	389.05422	
1032.730143	83.935885	381.854159	6.035701541	389.049228	
1033.78338	84.131319	381.845578	6.035824458	389.044582	
1034.834134	84.321868	381.835594	6.035714231	389.037496	
1035.885987	84.448115	381.830457	6.035152601	389.025918	
1036.937165	84.596816	381.822068	6.034832666	389.017163	
1037.988197	84.700935	381.820904	6.034821435	389.014219	
1039.038684	84.767684	381.814322	6.034732316	389.008996	
1040.091163	84.816082	381.809678	6.034593926	389.003429	
1041.142455	84.843895	381.811057	6.03465182	389.002064	
1042.193141	84.834682	381.80662	6.034700222	388.997191	
1043.244518	84.801912	381.803445	6.034668578	388.994787	
1044.298172	84.762793	381.800926	6.034835552	388.995775	
1045.350815	84.720097	381.803838	6.034769661	388.994111	
1046.401617	84.71542	381.801231	6.034706237	388.992306	
1047.453029	84.711375	381.804439	6.034804363	388.993704	
1048.503789	84.74413	381.800593	6.034720008	388.99262	
1049.553114	84.828452	381.797265	6.034655261	388.990142	
1050.603729	84.919241	381.795188	6.034771017	388.99082	
1051.653044	85.05074	381.789737	6.034646013	388.987578	
1052.703928	85.225065	381.783918	6.034439817	388.982718	
1053.7564	85.409087	381.780791	6.033813301	388.978167	
1054.807875	85.667716	381.770797	6.033859758	388.969626	
1055.857712	85.920346	381.764063	6.033687045	388.962397	
1056.908615	86.177522	381.75893	6.033603734	388.957294	
1057.960158	86.390817	381.755416	6.033564859	388.953862	
1059.036096	86.575811	381.753201	6.033520246	388.950623	
1060.085799	86.702609	381.748968	6.033389088	388.948671	
1061.136353	86.757541	381.741852	6.033196106	388.944519	
1062.186959	86.771491	381.740529	6.033215578	388.94174	
1063.23835	86.737653	381.742514	6.033253338	388.943325	
1064.289484	86.645039	381.73704	6.033125729	388.940348	
1065.34135	86.545113	381.734757	6.033014806	388.939212	
1066.395577	86.490632	381.738001	6.033170862	388.9416	
1067.446916	86.485168	381.737222	6.033140784	388.942049	
1068.499021	86.537347	381.737051	6.033134455	388.940889	
1069.551088	86.526564	381.737208	6.033140331	388.942309	
1070.602122	86.569741	381.735528	6.033164672	388.941575	
1071.653928	86.639083	381.729597	6.033058131	388.940041	
1072.705604	86.765334	381.725831	6.032964004	388.93767	
1073.758161	86.899211	381.721675	6.032974228	388.935407	
1074.812296	87.067482	381.722461	6.032952634	388.935177	
1075.862424	87.266028	381.716583	6.032403798	388.930109	
1076.914508	87.488404	381.71165	6.032337941	388.924236	
1077.965556	87.688389	381.708114	6.032193014	388.921401	
1079.016655	87.910205	381.702588	6.032006291	388.914292	
1080.070479	88.127143	381.693403	6.031887337	388.905423	
1081.122907	88.28964	381.692586	6.031798426	388.902205	
1082.177199	88.417067	381.684324	6.031558292	388.894431	
1083.227585	88.490216	381.681021	6.031609337	388.891815	
1084.278742	88.509078	381.675309	6.031555545	388.888957	
1085.33165	88.500005	381.674799	6.031517401	388.889507	
1086.381722	88.439754	381.673362	6.031498764	388.888998	
1087.435365	88.328759	381.675602	6.031460723	388.889215	
1088.487209	88.292614	381.673006	6.03143534	388.887723	
1089.538041	88.339188	381.676545	6.031504465	388.889657	
1090.591284	88.361719	381.672357	6.031397787	388.887378	
1091.643276	88.393586	381.671718	6.031299904	388.886838	
1092.695101	88.462038	381.67133	6.031383078	388.887271	
1093.746619	88.561919	381.667044	6.031302964	388.885205	
1094.799119	88.688846	381.663015	6.031282101	388.882551	
1095.849348	88.867397	381.656711	6.031122324	388.876063	
1096.901213	89.042295	381.646951	6.031134008	388.869655	
1097.951919	89.228571	381.645981	6.030830243	388.864447	
1099.00364	89.415766	381.636741	6.030696026	388.857321	
1100.052818	89.570211	381.634026	6.030664661	388.854906	
1101.104209	89.722371	381.627746	6.030461142	388.844778	
1102.156161	89.871216	381.62438	6.030443999	388.840143	
1103.206429	89.998036	381.619827	6.030329566	388.83472	
1104.258602	90.086827	381.614578	6.030359123	388.829813	
1105.30887	90.258932	381.602361	6.030145207	388.823237	
1106.358865	90.326304	381.60139	6.030098928	388.817183	
1107.411253	90.28974	381.603386	6.030071597	388.816182	
1108.461776	90.288674	381.596375	6.029887967	388.813115	
1109.512476	90.39716	381.597997	6.029909212	388.812515	
1110.562369	90.427645	381.595998	6.029895722	388.811749	
1111.613865	90.473278	381.594771	6.029902711	388.810455	
1112.665571	90.466565	381.595417	6.029875798	388.810385	
1113.720873	90.524882	381.588113	6.029695019	388.805052	
1114.774344	90.565015	381.587864	6.029628015	388.80329	
1115.826849	90.583191	381.586528	6.02960204	388.802901	
1116.87628	90.588166	381.588509	6.029622764	388.802207	
1117.92942	90.647918	381.582569	6.029548458	388.799985	
1118.9825	90.664811	381.582322	6.029498908	388.800187	
1120.035509	90.676146	381.579506	6.029447097	388.798478	
1121.087929	90.732333	381.576947	6.029335795	388.794981	
1122.139327	90.772792	381.574691	6.029317957	388.794593	
1123.189697	90.821247	381.569981	6.029241354	388.789968	
1124.239836	90.869954	381.568778	6.029091698	388.789254	
1125.291276	90.888527	381.568964	6.029063324	388.788258	
1126.34092	90.926913	381.566791	6.029021285	388.787814	
1127.391348	90.964111	381.561778	6.028907893	388.785065	
1128.44295	91.045845	381.5623	6.028947429	388.783929	
1129.49614	91.046787	381.558773	6.028844332	388.781694	
1130.546208	91.12228	381.558566	6.028853302	388.780912	
1131.599219	91.170753	381.556002	6.028853337	388.777775	
1132.64976	91.226354	381.552937	6.028742	388.776323	
1133.701735	91.297179	381.55263	6.028698918	388.775546	
1134.75539	91.338582	381.551697	6.028723813	388.774854	
1135.807925	91.404024	381.547963	6.028722214	388.771994	
1136.860443	91.460274	381.545371	6.028629547	388.768983	
1137.91362	91.451639	381.545644	6.02857106	388.77028	
1138.966218	91.519685	381.542456	6.028595402	388.76752	
1140.022081	91.582899	381.538306	6.028551763	388.764992	
1141.074461	91.609183	381.535261	6.028460661	388.762903	
1142.125938	91.730729	381.531043	6.028437608	388.75969	
1143.178287	91.729103	381.530617	6.028487679	388.759845	
1144.23154	91.793847	381.527359	6.028369421	388.755539	
1145.284587	91.834075	381.526142	6.028360449	388.752905	
1146.334592	91.918755	381.524864	6.028344141	388.749418	
1147.383533	91.993484	381.520158	6.028309161	388.745569	
1148.43515	92.005897	381.518474	6.028260134	388.744033	
1149.487617	92.044281	381.519324	6.028342403	388.743414	
1150.536987	92.128166	381.515718	6.028323556	388.741329	
1151.589255	92.211711	381.516356	6.028365631	388.739265	
1152.642107	92.257756	381.509153	6.028186696	388.735518	
1153.694188	92.238037	381.506611	6.028075288	388.734973	
1154.746072	92.363469	381.507597	6.028144484	388.733612	
1155.797711	92.406735	381.503617	6.028002927	388.730017	
1156.85117	92.508729	381.502308	6.02802226	388.728361	
1157.900383	92.552272	381.495067	6.027896284	388.722901	
1158.949204	92.573581	381.494434	6.027859425	388.722397	
1160.00138	92.617719	381.4932	6.027773749	388.718668	
1161.052521	92.687513	381.495629	6.027782789	388.716019	
1162.102391	92.730139	381.49318	6.027752016	388.714338	
1163.152127	92.805281	381.491947	6.027757788	388.712145	
1164.201645	92.879606	381.485218	6.027640678	388.70689	
1165.25445	92.942053	381.488425	6.027704795	388.707561	
1166.307888	92.992776	381.482101	6.027617657	388.701501	
1167.359587	93.060609	381.480658	6.027559937	388.697604	
1168.411337	93.080961	381.480932	6.027571203	388.698612	
1169.461362	93.141158	381.477192	6.027530833	388.696258	
1170.513105	93.231616	381.469951	6.027432047	388.691707	
1171.564213	93.217943	381.46752	6.027442132	388.689878	
1172.614494	93.287057	381.469158	6.027487369	388.689812	
1173.664114	93.367913	381.462173	6.027469739	388.685865	
1174.714915	93.442924	381.464008	6.02740854	388.685885	
1175.766294	93.448732	381.456892	6.027148346	388.681523	
1176.818771	93.525442	381.459749	6.027247792	388.682009	
1177.871572	93.578766	381.455193	6.027239794	388.679806	
1178.923539	93.668074	381.454441	6.027268551	388.679334	
1179.978648	93.693668	381.448546	6.027202868	388.674672	
1181.02947	93.780264	381.450867	6.027297967	388.674627	
1182.078964	93.863656	381.446224	6.027270532	388.672775	
1183.131308	93.913731	381.442712	6.027274602	388.670717	
1184.183169	93.937202	381.444415	6.02732742	388.671451	
1185.23409	93.976544	381.442688	6.027349986	388.670376	
1186.287513	94.029716	381.437381	6.027280235	388.665897	
1187.338178	94.099337	381.437549	6.027383749	388.666593	
1188.390482	94.132187	381.436145	6.027372311	388.663988	
1189.442559	94.235853	381.429811	6.027228391	388.660595	
1190.494403	94.226249	381.420811	6.027078211	388.657846	
1191.543493	94.358662	381.415649	6.027160725	388.65768	
1192.595365	94.364283	381.412118	6.027075881	388.654486	
1193.646469	94.446921	381.41382	6.027182074	388.654647	
1194.697868	94.473535	381.410863	6.02717724	388.651907	
1195.75156	94.559714	381.409366	6.027135342	388.650114	
1196.803724	94.60505	381.404959	6.027045282	388.646501	
1197.854752	94.675886	381.402663	6.026983945	388.645498	
1198.903866	94.733065	381.406147	6.027010128	388.64553	
1199.952838	94.79381	381.400942	6.026908316	388.641572	
1201.006213	94.840467	381.399182	6.02688123	388.64097	
1202.057611	94.864497	381.399652	6.0268136	388.63985	
1203.107829	94.963754	381.400078	6.026784531	388.63949	
1204.158726	94.994732	381.394892	6.026670166	388.636469	
1205.210141	95.049193	381.395446	6.026693429	388.636907	
1206.263964	95.105672	381.393525	6.02670852	388.635617	
1207.31696	95.167925	381.391592	6.026738039	388.635952	
1208.367561	95.302312	381.389114	6.026773437	388.632437	
1209.417512	95.324008	381.388403	6.026662863	388.631063	
1210.469615	95.36914	381.38571	6.026557993	388.62816	
1211.522805	95.415188	381.386604	6.0264929	388.627832	
1212.575575	95.453152	381.379412	6.026330411	388.623118	
1213.62717	95.515196	381.379944	6.026238199	388.62215	
1214.678818	95.575355	381.378038	6.026246334	388.621362	
1215.72634	95.663511	381.377594	6.026298388	388.619302	
1216.776775	95.720806	381.375232	6.026185659	388.6171	
1217.826094	95.785225	381.373347	6.026170359	388.616367	
1218.876064	95.857717	381.3723	6.026164169	388.61481	
1219.92737	95.851239	381.369816	6.026153355	388.61341	
1220.978749	95.949688	381.366802	6.026158779	388.609905	
1222.031987	96.002044	381.369349	6.026179991	388.610218	
1223.083334	96.02656	381.36385	6.026000881	388.605644	
1224.136412	96.100694	381.364945	6.026053944	388.605141	
1225.187432	96.142063	381.364074	6.025899348	388.602368	
1226.239479	96.199045	381.363354	6.025918612	388.60245	
1227.289984	96.262132	381.359602	6.025835473	388.599992	
1228.340085	96.27373	381.359399	6.025871218	388.598788	
1229.390264	96.389725	381.356821	6.025826641	388.59485	
1230.44058	96.364617	381.354224	6.025453715	388.593376	
1231.492812	96.506197	381.35397	6.025592037	388.592243	
1232.541504	96.532408	381.351635	6.025489044	388.589591	
1233.590913	96.582081	381.352744	6.025519261	388.590015	
1234.640896	96.675062	381.343991	6.025427567	388.585472	
1235.692231	96.704813	381.343842	6.025388345	388.585065	
1236.741845	96.770938	381.343431	6.025390989	388.583819	
1237.792542	96.826062	381.338154	6.025386294	388.580839	
1238.845963	96.881273	381.338754	6.025413415	388.579557	
1239.896841	96.951316	381.335957	6.025461956	388.57889	
1240.946943	96.989366	381.328705	6.025364282	388.578163	
1241.999005	97.063891	381.32253	6.025297729	388.572499	
1243.050025	97.092715	381.323519	6.025302563	388.573922	
1244.100973	97.140207	381.317966	6.024867675	388.569703	
1245.15195	97.253605	381.319673	6.024766838	388.56971	
1246.203852	97.237896	381.315608	6.024565891	388.566971	
1247.254199	97.304284	381.311036	6.024477536	388.563507	
1248.306265	97.348363	381.312545	6.024555877	388.563498	
1249.356403	97.387329	381.307167	6.024447215	388.559049	
1250.405801	97.443857	381.30463	6.024530807	388.555636	
1251.457052	97.484519	381.305505	6.024546975	388.55448	
1252.508848	97.542332	381.306036	6.024605148	388.55509	
1253.5598	97.62154	381.303317	6.024403091	388.552723	
1254.612992	97.663895	381.300081	6.024301871	388.54968	
1255.666248	97.744368	381.297359	6.024273114	388.546974	
1256.715937	97.761928	381.297441	6.024324576	388.548024	
1257.765698	97.78384	381.296877	6.024292065	388.544803	
1258.816951	97.881675	381.293167	6.024229129	388.5422	
1259.868625	97.954208	381.291863	6.024306182	388.540179	
1260.92001	97.964663	381.286927	6.024160175	388.536073	
1261.971329	98.057035	381.288168	6.024256564	388.537033	
1263.022684	98.061789	381.287525	6.024149744	388.535047	
1264.07205	98.15469	381.284797	6.024226521	388.532605	
1265.124441	98.216112	381.286218	6.02422899	388.532828	
1266.177855	98.265352	381.280742	6.024088128	388.527905	
1267.229821	98.295745	381.277813	6.024092615	388.526554	
1268.281639	98.369961	381.276553	6.024090703	388.524157	
1269.331736	98.430259	381.276496	6.024188237	388.524432	
1270.382702	98.449479	381.266795	6.024144842	388.521931	
1271.435052	98.551652	381.26185	6.024110314	388.518258	
1272.485075	98.577318	381.260288	6.023985657	388.516027	
1273.535542	98.67618	381.262267	6.024060868	388.516172	
1274.584848	98.700515	381.261328	6.024124049	388.515466	
1275.634408	98.731618	381.255598	6.023851473	388.511047	
1276.684721	98.77467	381.255414	6.023856656	388.511449	
1277.736537	98.852262	381.248886	6.023660996	388.507297	
1278.789751	98.909291	381.247835	6.02361221	388.505025	
1279.839611	98.960912	381.251139	6.023728659	388.505865	
1280.892817	99.018307	381.247605	6.023677478	388.503717	
1281.945285	99.071569	381.249697	6.023714681	388.502876	
1282.995904	99.145095	381.246408	6.023711239	388.500524	
1284.048534	99.164102	381.240653	6.023559184	388.497274	
1285.10031	99.259931	381.237529	6.02340198	388.494925	
1286.15342	99.284217	381.23965	6.023224332	388.494457	
1287.206039	99.348897	381.235792	6.0231083	388.492714	
1288.259088	99.425727	381.23436	6.023133473	388.492066	
1289.30982	99.468371	381.230606	6.023148078	388.490649	
1290.362476	99.55571	381.224457	6.023049467	388.487843	
1291.413543	99.603283	381.224607	6.023087019	388.48768	
1292.465549	99.649747	381.222783	6.023077319	388.487722	
1293.515677	99.698198	381.221895	6.022963963	388.486084	
1294.566372	99.761644	381.215028	6.022826546	388.481732	
1295.618114	99.825349	381.21553	6.022795669	388.480868	
1296.668507	99.825804	381.2147	6.022784332	388.479796	
1297.719042	99.934111	381.214493	6.022862882	388.479876	
1298.770321	99.941284	381.207504	6.022731549	388.475012	
1299.822392	100.034447	381.207601	6.022668856	388.473653	
1300.874147	100.073809	381.206238	6.022699212	388.473679	
1301.924251	100.120147	381.201001	6.02260418	388.469145	
1302.974945	100.144727	381.197333	6.022542739	388.46776	
1304.025141	100.223652	381.200374	6.022641629	388.469241	
1305.076964	100.291482	381.199049	6.022601678	388.468114	
1306.12766	100.312827	381.193952	6.022551362	388.46515	
1307.180607	100.355437	381.191711	6.022459426	388.46406	
1308.233063	100.452672	381.191504	6.022595661	388.464668	
1309.28447	100.467347	381.186597	6.022437449	388.462004	
1310.335645	100.513067	381.18258	6.022468537	388.460014	
1311.387319	100.619962	381.179222	6.022530883	388.458883	
1312.438145	100.651397	381.178277	6.022428966	388.456788	
1313.50897	100.685401	381.177277	6.022430809	388.457428	
1314.558918	100.725403	381.170998	6.02228456	388.453983	
1315.611437	100.77288	381.173218	6.022250033	388.453112	
1316.66264	100.872547	381.167576	6.022169014	388.450753	
1317.713152	100.945947	381.166457	6.021973771	388.448758	
1318.766085	100.956253	381.162905	6.021804989	388.446417	
1319.819356	100.999666	381.160736	6.021792506	388.447276	
1320.871123	101.040632	381.151953	6.021685896	388.442769	
1321.922368	101.101194	381.143489	6.0216159	388.439618	
1322.976057	101.179405	381.141069	6.021655054	388.439284	
1324.028388	101.210704	381.137785	6.021532729	388.437478	
1325.080708	101.225812	381.136347	6.021458142	388.435463	
1326.133132	101.327093	381.133581	6.021478031	388.434857	
1327.18482	101.377291	381.133479	6.021487142	388.435245	
1328.240541	101.383746	381.131906	6.021430778	388.434342	
1329.29204	101.506015	381.12595	6.021381542	388.428526	
1330.343933	101.556548	381.124806	6.021381542	388.4275	
1331.393668	101.605811	381.122706	6.021327087	388.426463	
1332.443861	101.631171	381.118287	6.021210359	388.422946	
1333.495776	101.694567	381.115547	6.021068005	388.420683	
1334.548551	101.763545	381.120126	6.021130977	388.421487	
1335.601692	101.799668	381.109595	6.021051941	388.415807	
1336.654847	101.835584	381.103755	6.021104549	388.413128	
1337.705007	101.889008	381.100997	6.020961256	388.409049	
1338.75483	101.937993	381.094564	6.020988413	388.405777	
1339.806487	102.003829	381.096352	6.021043143	388.405255	
1340.856363	102.086356	381.092	6.021028331	388.401255	
1341.913393	102.076079	381.087964	6.020915253	388.39845	
1342.964027	102.148398	381.088561	6.021031634	388.398612	
1344.016835	102.232334	381.084121	6.021004199	388.39562	
1345.068396	102.256112	381.082766	6.021001799	388.394172	
1346.121693	102.263281	381.082196	6.020920226	388.393134	
1347.172148	102.35018	381.078159	6.020662985	388.39038	
1348.222428	102.40048	381.08103	6.020761807	388.390178	
1349.273768	102.434012	381.078119	6.020765526	388.38537	
1350.324701	102.460263	381.074602	6.020610896	388.382809	
1351.377512	102.531924	381.072995	6.020621884	388.381695	
1352.428717	102.599071	381.072743	6.020511032	388.380158	
1353.48067	102.620675	381.072523	6.020350737	388.378665	
1354.530736	102.700881	381.071223	6.020277367	388.37556	
1355.583048	102.725599	381.06608	6.020007122	388.373106	
1356.634073	102.794927	381.065708	6.019977879	388.370859	
1357.686203	102.81933	381.061848	6.020054411	388.367018	
1358.736775	102.893311	381.064377	6.020133692	388.366745	
1359.788458	102.96282	381.061846	6.020253584	388.363268	
1360.839839	102.985701	381.057888	6.020256122	388.361552	
1361.89002	103.03859	381.055543	6.020212693	388.360481	
1362.940255	103.077136	381.055742	6.020333349	388.358488	
1363.992796	103.159073	381.05113	6.020230842	388.353654	
1365.044172	103.188476	381.052388	6.020282375	388.355513	
1366.095121	103.231417	381.049607	6.020331126	388.352448	
1367.148043	103.335066	381.041047	6.020331543	388.350691	
1368.198267	103.336015	381.038051	6.020319546	388.348002	
1369.251175	103.404639	381.037212	6.020349796	388.347009	
1370.301916	103.42874	381.034763	6.020339782	388.343801	
1371.35279	103.468576	381.028996	6.020252436	388.339902	
1372.403272	103.569291	381.028097	6.020340548	388.337891	
1373.452514	103.560259	381.027255	6.020231887	388.335389	
1374.503849	103.640411	381.024632	6.020297605	388.332874	
1375.553833	103.700761	381.026148	6.02018651	388.331238	
1376.603036	103.740881	381.023441	6.020038243	388.326025	
1377.654006	103.811574	381.022467	6.020049858	388.323414	
1378.703999	103.805638	381.01831	6.019959207	388.32178	
1379.752197	103.861161	381.020129	6.019878086	388.321068	
1380.800679	103.904594	381.020487	6.019822415	388.320297	
1381.853946	103.939375	381.016862	6.019756315	388.317316	
1382.904488	104.055962	381.013648	6.01975482	388.313668	
1383.955435	104.06129	381.015422	6.019760835	388.314667	
1385.006644	104.077964	381.009687	6.019623904	388.310504	
1386.057055	104.160307	381.011346	6.019639933	388.309502	
1387.106388	104.208211	381.004394	6.019553005	388.305541	
1388.155037	104.178871	381.003696	6.019491772	388.305179	
1389.206981	104.231326	381.000803	6.019495632	388.302468	
1390.258548	104.208458	380.998867	6.019375565	388.301629	
1391.310091	104.198541	380.995481	6.019332448	388.301518	
1392.36023	104.205666	380.992943	6.019280221	388.300743	
1393.410676	104.202058	380.990232	6.019200108	388.29909	
1394.462256	104.196693	380.986845	6.019040854	388.298907	
1395.512736	104.23549	380.981592	6.018848844	388.296415	
1396.564116	104.26301	380.980436	6.018803815	388.295906	
1397.615615	104.180967	380.969182	6.018558607	388.293191	
1398.666094	104.063067	380.955706	6.018386522	388.293101	
1399.717509	104.038995	380.946298	6.01800772	388.292155	
1400.7683	103.995784	380.941628	6.017762163	388.290639	
1401.821105	104.006799	380.93799	6.017706841	388.288954	
1402.871406	104.005533	380.931957	6.017554159	388.284783	
1403.921518	103.948807	380.929508	6.017726174	388.285677	
1404.972371	103.951663	380.919771	6.01749807	388.28397	
1406.022854	103.911418	380.91432	6.017073788	388.282396	
1407.07323	103.858544	380.908798	6.016941585	388.282376	
1408.123661	103.878493	380.903553	6.016886926	388.28053	
1409.175161	103.877937	380.895461	6.016729861	388.278234	
1410.224591	103.943247	380.892085	6.016676974	388.27744	
1411.275911	103.947051	380.886085	6.016604927	388.275267	
1412.326779	104.007991	380.880884	6.016552491	388.275477	
1413.377783	103.937127	380.872686	6.016352763	388.27315	
1414.428642	103.874512	380.864646	6.016112456	388.269569	
1415.479675	103.431302	380.837218	6.015416432	388.26722	
1416.528362	101.137837	380.747206	6.012592665	388.264679	
1417.599653	99.8289	380.686226	6.010470238	388.259602	
1418.650177	99.354718	380.650181	6.009899844	388.256498	
1419.70038	98.967211	380.634927	6.009216235	388.254075	
